GITM2 log file
## Inputs from UAM.in
# Resart= F
# Eddy coef:    50.000 Eddy P0:     0.010 Eddy P1:     0.005
# Statistical Models Only:  F Apex:  F
# EUV Data:  F
# E-Field Model: hepmay Auroral Model: FRE
# AMIE: none           
none                                                                                                                                                                                                                                                                                                                                                                                                                                                                                                                                                                                                                    
# Solar Heating:  T Joule Heating:  T
# NO Cooling:  T O Cooling:  T
# Conduction:  T Turbulent Conduction:  T
# Pressure Grad:  T Ion Drag:  T Neutral Drag:  T
# Viscosity:  T Coriolis:  T Gravity:  T
# Ion Chemistry:  T Ion Advection:  T Neutral Chemistry:  T
 
#START
   iStep yyyy mm dd hh mm ss  ms      dt min(T) max(T) mean(T) min(VV) max(VV) mean(VV) F107 F107A By Bz Vx HP HPn HPs HPn_diff HPs_diff HPn_w HPs_w HPn_m HPs_w SubsolarLon SubsolarLat SubsolarVTEC
       2 2002 12 21  0  0  4 105  4.1058    157.74815   1316.94399   1012.00744     -3.86975      4.80289      0.02833    177.9    149.5      6.1     -6.0    531.2     71.9     95.5     95.5  95.48751  95.48751   0.00000   0.00000   0.00000   0.00000   3.14129  -0.40992  58.10300
       3 2002 12 21  0  0  8 203  4.0977    157.87028   1316.73590   1012.12672     -5.52743      3.91095     -0.31462    177.9    149.5      6.2     -6.0    531.0     72.0     95.5     95.5  95.48751  95.48751   0.00000   0.00000   0.00000   0.00000   3.14100  -0.40992  58.06740
       4 2002 12 21  0  0 12 301  4.0979    157.90494   1316.53883   1012.25819     -6.40138      3.49807     -0.57158    177.9    149.5      6.2     -6.0    530.7     72.0     95.5     95.5  95.48751  95.48751   0.00000   0.00000   0.00000   0.00000   3.14070  -0.40992  58.05555
       5 2002 12 21  0  0 16 400  4.0987    157.88274   1316.34637   1012.39615     -6.90368      3.31526     -0.79020    177.9    149.5      6.3     -6.0    530.5     72.1     95.5     95.5  95.48751  95.48751   0.00000   0.00000   0.00000   0.00000   3.14040  -0.40992  58.06606
       6 2002 12 21  0  0 20 496  4.0965    157.86898   1316.16307   1012.53878     -7.25384      3.21791     -0.98941    177.9    149.5      6.3     -6.0    530.2     72.1     95.5     95.5  95.48751  95.48751   0.00000   0.00000   0.00000   0.00000   3.14010  -0.40992  58.03250
       7 2002 12 21  0  0 24 590  4.0938    157.87322   1315.99281   1012.68469     -7.54133      3.12009     -1.17811    177.9    149.5      6.3     -6.0    529.9     72.2     95.5     95.5  95.48751  95.48751   0.00000   0.00000   0.00000   0.00000   3.13980  -0.40992  58.02778
       8 2002 12 21  0  0 28 675  4.0848    157.89198   1315.83926   1012.83293     -7.79925      3.00816     -1.36151    177.9    149.5      6.4     -6.0    529.7     72.2     95.5     95.5  95.48751  95.48751   0.00000   0.00000   0.00000   0.00000   3.13951  -0.40992  57.98298
       9 2002 12 21  0  0 32 754  4.0791    157.90243   1315.70404   1012.98282     -8.04549      2.90471     -1.53884    177.9    149.5      6.4     -6.0    529.4     72.3     95.5     95.5  95.48751  95.48751   0.00000   0.00000   0.00000   0.00000   3.13921  -0.40992  57.96860
      10 2002 12 21  0  0 36 830  4.0759    157.90411   1315.58350   1013.13407     -8.28332      2.79800     -1.71219    177.9    149.5      6.4     -6.0    529.1     72.3     95.5     95.5  95.48751  95.48751   0.00000   0.00000   0.00000   0.00000   3.13891  -0.40992  57.91233
      11 2002 12 21  0  0 40 902  4.0723    157.90678   1315.47661   1013.28606     -8.57611      2.68311     -1.88161    177.9    149.5      6.5     -6.0    528.9     72.3     95.5     95.5  95.48751  95.48751   0.00000   0.00000   0.00000   0.00000   3.13862  -0.40992  57.89359
      12 2002 12 21  0  0 44 973  4.0709    157.91246   1315.38183   1013.43866     -9.01199      2.56431     -2.04663    177.9    149.5      6.5     -6.0    528.6     72.4     95.5     95.5  95.48751  95.48751   0.00000   0.00000   0.00000   0.00000   3.13832  -0.40992  57.83401
      13 2002 12 21  0  0 49  45  4.0716    157.92037   1315.29788   1013.59144     -9.43245      2.44058     -2.20940    177.9    149.5      6.5     -6.0    528.4     72.4     95.5     95.5  95.48751  95.48751   0.00000   0.00000   0.00000   0.00000   3.13803  -0.40992  57.81390
      14 2002 12 21  0  0 53 118  4.0730    157.92896   1315.22347   1013.74432     -9.83559      2.31071     -2.36974    177.9    149.5      6.6     -6.0    528.1     72.5     95.5     95.5  95.48751  95.48751   0.00000   0.00000   0.00000   0.00000   3.13773  -0.40992  57.74786
      15 2002 12 21  0  0 57 193  4.0755    157.93726   1315.15740   1013.89692    -10.31569      2.35112     -2.52762    177.9    149.5      6.6     -6.0    527.8     72.5     95.5     95.5  95.48751  95.48751   0.00000   0.00000   0.00000   0.00000   3.13743  -0.40992  57.72761
      16 2002 12 21  0  1  1 272  4.0790    157.94398   1315.17051   1014.04922    -11.03754      2.45166     -2.68324    177.9    149.5      6.6     -6.0    527.7     72.6     95.5     95.5  95.48751  95.48751   0.00000   0.00000   0.00000   0.00000   3.13714  -0.40992  57.66204
      17 2002 12 21  0  1  5 355  4.0831    157.94785   1315.67624   1014.20086    -11.91763      2.70520     -2.83629    177.9    149.5      6.6     -6.0    527.8     72.5     95.5     95.5  95.51181  95.51181   0.00000   0.00000   0.00000   0.00000   3.13684  -0.40992  57.64239
      18 2002 12 21  0  1  9 443  4.0880    157.95053   1316.16648   1014.35188    -12.77784      2.99793     -2.98695    177.9    149.5      6.6     -6.0    528.0     72.5     95.5     95.5  95.51181  95.51181   0.00000   0.00000   0.00000   0.00000   3.13654  -0.40992  57.57182
      19 2002 12 21  0  1 13 536  4.0923    157.95352   1316.64224   1014.50194    -13.65334      3.33228     -3.13515    177.9    149.5      6.6     -6.0    528.1     72.4     95.5     95.5  95.51181  95.51181   0.00000   0.00000   0.00000   0.00000   3.13624  -0.40992  57.55288
      20 2002 12 21  0  1 17 628  4.0924    157.95630   1317.10393   1014.65090    -14.46001      3.70957     -3.28077    177.9    149.5      6.6     -6.1    528.2     72.4     95.5     95.5  95.51181  95.51181   0.00000   0.00000   0.00000   0.00000   3.13595  -0.40992  57.48684
      21 2002 12 21  0  1 21 721  4.0925    157.95767   1317.55265   1014.79851    -15.42502      4.10970     -3.42325    177.9    149.5      6.6     -6.1    528.3     72.3     95.5     95.5  95.51181  95.51181   0.00000   0.00000   0.00000   0.00000   3.13565  -0.40992  57.46894
      22 2002 12 21  0  1 25 813  4.0926    157.95758   1317.98923   1014.94480    -16.00406      4.37621     -3.56243    177.9    149.5      6.5     -6.1    528.5     72.3     95.5     95.5  95.51181  95.51181   0.00000   0.00000   0.00000   0.00000   3.13535  -0.40992  57.39800
      23 2002 12 21  0  1 29 906  4.0925    157.95634   1318.41444   1015.08952    -17.15061      4.86584     -3.69808    177.9    149.5      6.5     -6.1    528.6     72.2     95.5     95.5  95.51181  95.51181   0.00000   0.00000   0.00000   0.00000   3.13505  -0.40992  57.38067
      24 2002 12 21  0  1 33 998  4.0922    157.95413   1318.82897   1015.23272    -17.49150      5.11417     -3.82992    177.9    149.5      6.5     -6.1    528.7     72.2     95.5     95.5  95.51181  95.51181   0.00000   0.00000   0.00000   0.00000   3.13476  -0.40992  57.31587
      25 2002 12 21  0  1 38  90  4.0919    157.95095   1319.23344   1015.37417    -18.86878      5.42478     -3.95785    177.9    149.5      6.5     -6.1    528.8     72.2     95.5     95.5  95.51181  95.51181   0.00000   0.00000   0.00000   0.00000   3.13446  -0.40992  57.29987
      26 2002 12 21  0  1 42 181  4.0915    157.94665   1319.62845   1015.51392    -19.54617      5.82737     -4.08163    177.9    149.5      6.5     -6.1    529.0     72.1     95.5     95.5  95.51181  95.51181   0.00000   0.00000   0.00000   0.00000   3.13416  -0.40992  57.22884
      27 2002 12 21  0  1 46 272  4.0911    157.94122   1320.01446   1015.65178    -20.44279      5.91946     -4.20084    177.9    149.5      6.5     -6.1    529.1     72.1     95.5     95.5  95.51181  95.51181   0.00000   0.00000   0.00000   0.00000   3.13386  -0.40992  57.21342
      28 2002 12 21  0  1 50 363  4.0908    157.93498   1320.39185   1015.78780    -21.68216      6.41659     -4.31500    177.9    149.5      6.5     -6.1    529.2     72.0     95.5     95.5  95.51181  95.51181   0.00000   0.00000   0.00000   0.00000   3.13357  -0.40992  57.14965
      29 2002 12 21  0  1 54 454  4.0906    157.92791   1320.76108   1015.92181    -21.91180      6.70648     -4.42370    177.9    149.5      6.5     -6.1    529.3     72.0     95.5     95.5  95.51181  95.51181   0.00000   0.00000   0.00000   0.00000   3.13327  -0.40992  57.13548
      30 2002 12 21  0  1 58 544  4.0906    157.92009   1321.12258   1016.05388    -23.30643      6.89647     -4.52684    177.9    149.5      6.4     -6.1    529.5     71.9     95.5     95.5  95.51181  95.51181   0.00000   0.00000   0.00000   0.00000   3.13297  -0.40992  57.06564
      31 2002 12 21  0  2  2 635  4.0907    157.91112   1321.47668   1016.18383    -24.38068      7.38342     -4.62423    177.9    149.5      6.4     -6.1    529.5     72.0     95.5     95.5  95.51181  95.51181   0.00000   0.00000   0.00000   0.00000   3.13267  -0.40992  57.05209
      32 2002 12 21  0  2  6 726  4.0909    157.89590   1321.82349   1016.31170    -24.31998      7.57737     -4.71554    177.9    149.5      6.4     -6.2    529.5     72.1     95.5     95.5  95.53615  95.53615   0.00000   0.00000   0.00000   0.00000   3.13238  -0.40992  56.98857
      33 2002 12 21  0  2 10 817  4.0911    157.88114   1322.16335   1016.43735    -26.10704      7.81947     -4.80037    177.9    149.5      6.4     -6.2    529.6     72.2     95.5     95.5  95.53615  95.53615   0.00000   0.00000   0.00000   0.00000   3.13208  -0.40992  56.97633
      34 2002 12 21  0  2 14 908  4.0912    157.86753   1322.49644   1016.56086    -27.15398      8.30135     -4.87862    177.9    149.5      6.4     -6.2    529.6     72.3     95.5     95.5  95.53615  95.53615   0.00000   0.00000   0.00000   0.00000   3.13178  -0.40992  56.90701
      35 2002 12 21  0  2 19   0  4.0913    157.85535   1322.82293   1016.68210    -27.07603      8.48441     -4.95015    177.9    149.5      6.4     -6.2    529.6     72.4     95.5     95.5  95.53615  95.53615   0.00000   0.00000   0.00000   0.00000   3.13148  -0.40992  56.89511
      36 2002 12 21  0  2 23  91  4.0913    157.84451   1323.14294   1016.80118    -28.73257      8.66789     -5.01492    177.9    149.5      6.4     -6.2    529.7     72.5     95.5     95.5  95.53615  95.53615   0.00000   0.00000   0.00000   0.00000   3.13119  -0.40992  56.83238
      37 2002 12 21  0  2 27 182  4.0913    157.83494   1323.45657   1016.91795    -29.97126      9.19275     -5.07296    177.9    149.5      6.3     -6.2    529.7     72.7     95.5     95.5  95.53615  95.53615   0.00000   0.00000   0.00000   0.00000   3.13089  -0.40992  56.82151
      38 2002 12 21  0  2 31 273  4.0913    157.82680   1323.76390   1017.03256    -29.94084      9.39473     -5.12422    177.9    149.5      6.3     -6.2    529.7     72.8     95.5     95.5  95.53615  95.53615   0.00000   0.00000   0.00000   0.00000   3.13059  -0.40992  56.75295
      39 2002 12 21  0  2 35 365  4.0913    157.82032   1324.06496   1017.14488    -30.91240      9.46891     -5.16868    177.9    149.5      6.3     -6.3    529.8     72.9     95.5     95.5  95.53615  95.53615   0.00000   0.00000   0.00000   0.00000   3.13029  -0.40992  56.74260
      40 2002 12 21  0  2 39 456  4.0912    157.81562   1324.35980   1017.25507    -32.50792     10.04488     -5.20648    177.9    149.5      6.3     -6.3    529.8     73.0     95.5     95.5  95.53615  95.53615   0.00000   0.00000   0.00000   0.00000   3.13000  -0.40992  56.68040
      41 2002 12 21  0  2 43 547  4.0912    157.81260   1324.64843   1017.36301    -32.93724     10.32105     -5.23762    177.9    149.5      6.3     -6.3    529.8     73.1     95.5     95.5  95.53615  95.53615   0.00000   0.00000   0.00000   0.00000   3.12970  -0.40992  56.67115
      42 2002 12 21  0  2 47 638  4.0912    157.81040   1324.93085   1017.46887    -32.98942     10.21373     -5.26198    177.9    149.5      6.3     -6.3    529.9     73.2     95.5     95.5  95.53615  95.53615   0.00000   0.00000   0.00000   0.00000   3.12940  -0.40992  56.60283
      43 2002 12 21  0  2 51 730  4.0912    157.80941   1325.20704   1017.57258    -34.99759     10.86820     -5.27949    177.9    149.5      6.3     -6.3    529.9     73.3     95.5     95.5  95.53615  95.53615   0.00000   0.00000   0.00000   0.00000   3.12910  -0.40992  56.59400
      44 2002 12 21  0  2 55 821  4.0911    157.81021   1325.47698   1017.67430    -36.01793     11.26965     -5.28993    177.9    149.5      6.2     -6.3    529.9     73.5     95.5     95.5  95.53615  95.53615   0.00000   0.00000   0.00000   0.00000   3.12881  -0.40992  56.53299
      45 2002 12 21  0  2 59 912  4.0911    157.81244   1325.74067   1017.77400    -35.56758     12.09011     -5.29289    177.9    149.5      6.2     -6.4    530.0     73.6     95.5     95.5  95.53615  95.53615   0.00000   0.00000   0.00000   0.00000   3.12851  -0.40992  56.52519
      46 2002 12 21  0  3  4   3  4.0911    157.80902   1325.99809   1017.87186    -36.80902     13.10959     -5.28771    177.9    149.5      6.2     -6.3    530.0     73.8     95.5     95.5  95.53615  95.53615   0.00000   0.00000   0.00000   0.00000   3.12821  -0.40992  56.45795
      47 2002 12 21  0  3  8  94  4.0911    157.80617   1326.24902   1017.96778    -38.44960     13.98109     -5.27400    177.9    149.5      6.3     -6.3    530.1     74.0     95.6     95.6  95.56049  95.56049   0.00000   0.00000   0.00000   0.00000   3.12791  -0.40992  56.45038
      48 2002 12 21  0  3 12 185  4.0911    157.80413   1326.49367   1018.06204    -38.82323     15.39016     -5.25076    177.9    149.5      6.3     -6.3    530.2     74.2     95.6     95.6  95.56049  95.56049   0.00000   0.00000   0.00000   0.00000   3.12762  -0.40992  56.38972
      49 2002 12 21  0  3 16 276  4.0911    157.80288   1326.73205   1018.15461    -38.02429     16.44082     -5.21700    177.9    149.5      6.3     -6.3    530.3     74.4     95.6     95.6  95.56049  95.56049   0.00000   0.00000   0.00000   0.00000   3.12732  -0.40992  56.38341
      50 2002 12 21  0  3 20 367  4.0911    157.80189   1326.96421   1018.24575    -40.11780     17.21126     -5.17168    177.9    149.5      6.3     -6.3    530.4     74.6     95.6     95.6  95.56049  95.56049   0.00000   0.00000   0.00000   0.00000   3.12702  -0.40992  56.31676
      51 2002 12 21  0  3 24 459  4.0911    157.80090   1327.19026   1018.33549    -41.32750     18.79685     -5.11361    177.9    149.5      6.3     -6.2    530.5     74.9     95.6     95.6  95.56049  95.56049   0.00000   0.00000   0.00000   0.00000   3.12672  -0.40992  56.31063
      52 2002 12 21  0  3 28 550  4.0911    157.79973   1327.41032   1018.42409    -41.09882     20.01534     -5.04150    177.9    149.5      6.3     -6.2    530.6     75.1     95.6     95.6  95.56049  95.56049   0.00000   0.00000   0.00000   0.00000   3.12643  -0.40992  56.25098
      53 2002 12 21  0  3 32 641  4.0911    157.79964   1327.62458   1018.51162    -40.88673     20.81658     -4.95402    177.9    149.5      6.3     -6.2    530.7     75.3     95.6     95.6  95.56049  95.56049   0.00000   0.00000   0.00000   0.00000   3.12613  -0.40992  56.24556
      54 2002 12 21  0  3 36 732  4.0911    157.80065   1327.83330   1018.59837    -42.62062     22.03905     -4.85005    177.9    149.5      6.3     -6.2    530.8     75.5     95.6     95.6  95.56049  95.56049   0.00000   0.00000   0.00000   0.00000   3.12583  -0.40992  56.18085
      55 2002 12 21  0  3 40 823  4.0911    157.80145   1328.03679   1018.68440    -43.37014     23.69210     -4.72852    177.9    149.5      6.3     -6.1    530.9     75.7     95.6     95.6  95.56049  95.56049   0.00000   0.00000   0.00000   0.00000   3.12553  -0.40992  56.17585
      56 2002 12 21  0  3 44 914  4.0910    157.80182   1328.23547   1018.77005    -42.58945     24.71269     -4.58853    177.9    149.5      6.3     -6.1    531.0     75.9     95.6     95.6  95.56049  95.56049   0.00000   0.00000   0.00000   0.00000   3.12524  -0.40992  56.11543
      57 2002 12 21  0  3 49   5  4.0910    157.80245   1328.42981   1018.85540    -42.90813     25.25413     -4.42937    177.9    149.5      6.4     -6.1    531.1     76.2     95.6     95.6  95.56049  95.56049   0.00000   0.00000   0.00000   0.00000   3.12494  -0.40992  56.11113
      58 2002 12 21  0  3 53  96  4.0909    157.80348   1328.62038   1018.94079    -44.17681     26.97574     -4.25058    177.9    149.5      6.4     -6.1    531.2     76.4     95.6     95.6  95.56049  95.56049   0.00000   0.00000   0.00000   0.00000   3.12464  -0.40992  56.04594
      59 2002 12 21  0  3 57 187  4.0909    157.80467   1328.80781   1019.02632    -44.45048     28.58775     -4.05208    177.9    149.5      6.4     -6.1    531.3     76.6     95.6     95.6  95.56049  95.56049   0.00000   0.00000   0.00000   0.00000   3.12434  -0.40992  56.04184
      60 2002 12 21  0  4  1 278  4.0908    157.80580   1328.99275   1019.11232    -43.18054     29.46689     -3.83403    177.9    149.5      6.4     -6.0    531.4     76.7     95.6     95.6  95.56049  95.56049   0.00000   0.00000   0.00000   0.00000   3.12405  -0.40992  55.98337
      61 2002 12 21  0  4  5 368  4.0907    157.80670   1329.17562   1019.19883    -44.05377     29.91722     -3.59696    177.9    149.5      6.3     -6.1    531.6     76.8    170.6    170.6 170.63440 170.63440   0.00000   0.00000   0.00000   0.00000   3.12375  -0.40992  55.97996
      62 2002 12 21  0  4  9 459  4.0906    157.80741   1329.35765   1019.28629    -44.84194     31.89070     -3.34160    177.9    149.5      6.3     -6.1    531.7     76.8    170.6    170.6 170.63440 170.63440   0.00000   0.00000   0.00000   0.00000   3.12345  -0.40992  55.91769
      63 2002 12 21  0  4 13 550  4.0905    157.80800   1329.53979   1019.37478    -44.54518     33.54783     -3.06910    177.9    149.5      6.2     -6.1    531.9     76.9    170.6    170.6 170.63440 170.63440   0.00000   0.00000   0.00000   0.00000   3.12315  -0.40992  55.91496
      64 2002 12 21  0  4 17 640  4.0904    157.80845   1329.72297   1019.46462    -43.16364     34.51861     -2.78086    177.9    149.5      6.1     -6.2    532.1     76.9    170.6    170.6 170.63440 170.63440   0.00000   0.00000   0.00000   0.00000   3.12286  -0.40992  55.85134
      65 2002 12 21  0  4 21 730  4.0903    157.80868   1329.90815   1019.55586    -44.28662     34.88239     -2.47845    177.9    149.5      6.1     -6.2    532.2     76.9    170.6    170.6 170.63440 170.63440   0.00000   0.00000   0.00000   0.00000   3.12256  -0.40992  55.84912
      66 2002 12 21  0  4 25 820  4.0901    157.80861   1330.09624   1019.64882    -44.56869     36.42022     -2.16356    177.9    149.5      6.0     -6.2    532.4     77.0    170.6    170.6 170.63440 170.63440   0.00000   0.00000   0.00000   0.00000   3.12226  -0.40992  55.78698
      67 2002 12 21  0  4 29 910  4.0900    157.80824   1330.28806   1019.74351    -43.60286     38.25109     -1.83813    177.9    149.5      6.0     -6.2    532.5     77.0    170.6    170.6 170.63440 170.63440   0.00000   0.00000   0.00000   0.00000   3.12196  -0.40992  55.78553
      68 2002 12 21  0  4 34   0  4.0898    157.80757   1330.48436   1019.84022    -43.00078     39.53251     -1.50415    177.9    149.5      5.9     -6.3    532.7     77.1    170.6    170.6 170.63440 170.63440   0.00000   0.00000   0.00000   0.00000   3.12167  -0.40992  55.72399
      69 2002 12 21  0  4 38  90  4.0897    157.80659   1330.68564   1019.93893    -43.61740     39.89530     -1.16367    177.9    149.5      5.8     -6.3    532.8     77.1    170.6    170.6 170.63440 170.63440   0.00000   0.00000   0.00000   0.00000   3.12137  -0.40992  55.72227
      70 2002 12 21  0  4 42 179  4.0895    157.80528   1330.89233   1020.03988    -43.38286     41.04644     -0.81858    177.9    149.5      5.8     -6.3    533.0     77.1    170.6    170.6 170.63440 170.63440   0.00000   0.00000   0.00000   0.00000   3.12107  -0.40992  55.66452
      71 2002 12 21  0  4 46 269  4.0893    157.80363   1331.10460   1020.14305    -41.87083     42.99917     -0.47082    177.9    149.5      5.7     -6.3    533.2     77.2    170.6    170.6 170.63440 170.63440   0.00000   0.00000   0.00000   0.00000   3.12077  -0.40992  55.66386
      72 2002 12 21  0  4 50 358  4.0891    157.80164   1331.32232   1020.24863    -42.11856     44.25683     -0.12212    177.9    149.5      5.7     -6.4    533.3     77.2    170.6    170.6 170.63440 170.63440   0.00000   0.00000   0.00000   0.00000   3.12048  -0.40992  55.59914
      73 2002 12 21  0  4 54 447  4.0890    157.79933   1331.54507   1020.35659    -42.20405     44.83634      0.22589    177.9    149.5      5.6     -6.4    533.5     77.2    170.6    170.6 170.63440 170.63440   0.00000   0.00000   0.00000   0.00000   3.12018  -0.40992  55.59813
      74 2002 12 21  0  4 58 536  4.0888    157.79670   1331.77214   1020.46710    -41.56908     46.12755      0.57178    177.9    149.5      5.5     -6.4    533.6     77.3    170.6    170.6 170.63440 170.63440   0.00000   0.00000   0.00000   0.00000   3.11988  -0.40992  55.54019
      75 2002 12 21  0  5  0   0  1.4639    157.80019   1331.81352   1020.50339    -41.84781     46.78799      0.50879    177.9    149.5      5.5     -6.4    533.7     77.3    170.6    170.6 170.63440 170.63440   0.00000   0.00000   0.00000   0.00000   3.11978  -0.40992  55.54131
