GITM2 log file
## Inputs from UAM.in
# Resart= F
# Eddy coef:    50.000 Eddy P0:     0.010 Eddy P1:     0.005
# Statistical Models Only:  F Apex:  F
# EUV Data:  F
# AMIE: none           
none                                                                                                                                                                                                                                                                                                                                                                                                                                                                                                                                                                                                                    
# Solar Heating:  T Joule Heating:  T Auroral Heating:  T
# NO Cooling:  T O Cooling:  T
# Conduction:  T Turbulent Conduction:  T
# Pressure Grad:  T Ion Drag:  T Neutral Drag:  T
# Viscosity:  T Coriolis:  T Gravity:  T
# Ion Chemistry:  T Ion Advection:  T Neutral Chemistry:  T
 
#START
   iStep yyyy mm dd hh mm ss  ms      dt min(T) max(T) mean(T) min(VV) max(VV) mean(VV) F107 F107A By Bz Vx HP HPn HPs SubsolarLon SubsolarLat SubsolarVTEC
       2 2002 12 21  0  0  4 675  4.6756    185.64702   1027.36610    968.40725     -1.31136      0.37821     -0.33905    177.9    149.5      0.0     -2.0    531.2     48.0     48.1     48.1   3.14125  -0.40992  49.01381
       3 2002 12 21  0  0  9 304  4.6285    185.64308   1028.83437    968.68754     -3.86437      0.76240     -0.64862    177.9    149.5      0.0     -2.0    530.9     48.1     48.1     48.1   3.14092  -0.40992  49.15266
       4 2002 12 21  0  0 13 875  4.5715    184.87044   1030.53947    968.95677     -4.97601      1.70430     -0.89784    177.9    149.5      0.0     -2.0    530.6     48.1     48.1     48.1   3.14058  -0.40992  49.14756
       5 2002 12 21  0  0 18 428  4.5534    184.37308   1032.11126    969.23530     -2.92105      2.51306     -1.06639    177.9    149.5      0.0     -2.0    530.3     48.1     48.1     48.1   3.14025  -0.40992  49.30864
       6 2002 12 21  0  0 23  19  4.5902    184.19104   1033.58696    969.52514     -3.15984      3.16338     -1.20542    177.9    149.5      0.0     -2.0    530.0     48.2     48.1     48.1   3.13992  -0.40992  49.39273
       7 2002 12 21  0  0 27 622  4.6037    184.02323   1034.97003    969.82219     -3.42500      3.60678     -1.34828    177.9    149.5      0.0     -2.0    529.7     48.2     48.1     48.1   3.13958  -0.40992  49.54130
       8 2002 12 21  0  0 32 228  4.6053    183.86244   1036.26497    970.12458     -3.66730      3.86141     -1.48165    177.9    149.5      0.0     -2.0    529.4     48.2     48.1     48.1   3.13925  -0.40992  49.50139
       9 2002 12 21  0  0 36 841  4.6134    183.71657   1037.48129    970.42929     -3.88915      4.25071     -1.59162    177.9    149.5      0.0     -2.0    529.1     48.3     48.1     48.1   3.13891  -0.40992  49.62516
      10 2002 12 21  0  0 41 460  4.6192    183.60977   1038.62543    970.73575     -4.07758      4.64954     -1.69522    177.9    149.5      0.0     -2.0    528.8     48.3     48.1     48.1   3.13858  -0.40992  49.69366
      11 2002 12 21  0  0 46  83  4.6225    183.49689   1039.70365    971.04234     -4.23961      4.99332     -1.78814    177.9    149.5      0.0     -2.0    528.6     48.3     48.1     48.1   3.13824  -0.40992  49.80280
      12 2002 12 21  0  0 50 710  4.6274    183.39747   1040.72255    971.34894     -4.37614      5.24682     -1.87761    177.9    149.5      0.0     -2.0    528.3     48.4     48.1     48.1   3.13790  -0.40992  49.69353
      13 2002 12 21  0  0 55 334  4.6243    183.30006   1041.68553    971.65274     -4.49556      5.75769     -1.96243    177.9    149.5      0.0     -2.0    528.0     48.4     48.1     48.1   3.13757  -0.40992  49.78740
      14 2002 12 21  0  0 59 956  4.6213    183.20461   1042.60335    971.95419     -4.59233      6.39774     -2.03661    177.9    149.5      0.0     -2.0    527.7     48.4     48.1     48.1   3.13723  -0.40992  49.84385
      15 2002 12 21  0  1  4 575  4.6196    183.12886   1043.53095    972.25202     -4.66231      6.67356     -2.10196    177.9    149.5      0.0     -2.0    527.8     48.5     48.1     48.1   3.13690  -0.40992  49.92467
      16 2002 12 21  0  1  9 195  4.6194    183.05671   1044.42259    972.54691     -4.69951      7.55814     -2.15739    177.9    149.5      0.0     -2.0    527.9     48.5     48.6     48.6   3.13656  -0.40992  49.86792
      17 2002 12 21  0  1 13 815  4.6208    182.99234   1045.28128    972.83756     -4.86947      7.81032     -2.20152    177.9    149.5      0.0     -2.0    528.1     48.5     48.6     48.6   3.13622  -0.40992  49.94145
      18 2002 12 21  0  1 18 438  4.6229    182.94173   1046.10994    973.12463     -5.18260      8.61078     -2.23640    177.9    149.5      0.0     -2.0    528.2     48.6     48.6     48.6   3.13589  -0.40992  49.91484
      19 2002 12 21  0  1 23  64  4.6258    182.89406   1046.91110    973.40749     -5.49509      8.78042     -2.26102    177.9    149.5      0.0     -2.0    528.4     48.6     48.6     48.6   3.13555  -0.40992  49.98134
      20 2002 12 21  0  1 27 693  4.6288    182.85285   1047.70635    973.68654     -5.80660      9.61948     -2.27497    177.9    149.5      0.0     -2.0    528.5     48.6     48.6     48.6   3.13522  -0.40992  49.98559
      21 2002 12 21  0  1 32 325  4.6317    182.81767   1048.51703    973.96123     -6.13311      9.60928     -2.27816    177.9    149.5      0.0     -2.0    528.7     48.7     48.6     48.6   3.13488  -0.40992  50.05275
      22 2002 12 21  0  1 36 959  4.6344    182.78838   1049.30608    974.23251     -6.48190     10.61133     -2.27012    177.9    149.5      0.0     -2.0    528.8     48.7     48.6     48.6   3.13454  -0.40992  49.91063
      23 2002 12 21  0  1 41 596  4.6370    182.76413   1050.07447    974.49875     -6.83409     10.36211     -2.25190    177.9    149.5      0.0     -2.0    528.9     48.7     48.6     48.6   3.13420  -0.40992  49.97513
      24 2002 12 21  0  1 46 235  4.6393    182.74311   1050.82465    974.76096     -7.18955     11.50966     -2.22331    177.9    149.5      0.0     -2.0    529.1     48.8     48.6     48.6   3.13387  -0.40992  50.02292
      25 2002 12 21  0  1 50 875  4.6400    182.72448   1051.60415    975.01893     -7.54799     11.73717     -2.18454    177.9    149.5      0.0     -2.0    529.2     48.8     48.6     48.6   3.13353  -0.40992  50.07421
      26 2002 12 21  0  1 55 514  4.6392    182.70787   1052.36450    975.27293     -7.90910     12.16381     -2.13537    177.9    149.5      0.0     -2.0    529.4     48.8     48.6     48.6   3.13319  -0.40992  50.08542
      27 2002 12 21  0  2  0 153  4.6385    182.69390   1053.10643    975.52272     -8.27267     12.98639     -2.07510    177.9    149.5      0.0     -2.0    529.5     48.9     48.6     48.6   3.13285  -0.40992  50.13711
      28 2002 12 21  0  2  4 791  4.6379    182.68195   1053.83482    975.76907     -8.63846     12.54319     -2.00364    177.9    149.5      0.0     -2.0    529.5     48.9     49.0     49.0   3.13252  -0.40992  50.02782
      29 2002 12 21  0  2  9 428  4.6373    182.67182   1054.58063    976.01098     -9.00620     13.83974     -1.92005    177.9    149.5      0.0     -2.0    529.6     48.9     49.0     49.0   3.13218  -0.40992  50.08544
      30 2002 12 21  0  2 14  65  4.6370    182.66243   1055.30923    976.24972     -9.37546     14.25235     -1.82285    177.9    149.5      0.0     -2.0    529.6     49.0     49.0     49.0   3.13184  -0.40992  50.07016
      31 2002 12 21  0  2 18 702  4.6367    182.65282   1056.02137    976.48460     -9.74590     14.20340     -1.71058    177.9    149.5      0.0     -2.0    529.6     49.0     49.0     49.0   3.13151  -0.40992  50.12933
      32 2002 12 21  0  2 23 338  4.6366    182.64343   1056.72305    976.71675    -10.11718     15.36015     -1.58102    177.9    149.5      0.0     -2.0    529.7     49.0     49.0     49.0   3.13117  -0.40992  50.04610
      33 2002 12 21  0  2 27 975  4.6368    182.63419   1057.43242    976.94535    -10.49430     15.55099     -1.43147    177.9    149.5      0.0     -2.0    529.7     49.1     49.0     49.0   3.13083  -0.40992  50.10540
      34 2002 12 21  0  2 32 612  4.6370    182.62478   1058.12625    977.17146    -10.87247     15.69526     -1.26058    177.9    149.5      0.0     -2.0    529.7     49.1     49.0     49.0   3.13049  -0.40992  50.06955
      35 2002 12 21  0  2 37 250  4.6374    182.61490   1058.80527    977.39449    -11.25195     16.78952     -1.06697    177.9    149.5      0.0     -2.0    529.8     49.1     49.0     49.0   3.13016  -0.40992  50.12770
      36 2002 12 21  0  2 41 887  4.6378    182.60473   1059.47015    977.61538    -11.63409     16.95872     -0.84947    177.9    149.5      0.0     -2.0    529.8     49.2     49.0     49.0   3.12982  -0.40992  50.08629
      37 2002 12 21  0  2 46 526  4.6384    182.59396   1060.13752    977.83363    -12.01906     17.06692     -0.60870    177.9    149.5      0.0     -2.0    529.8     49.2     49.0     49.0   3.12948  -0.40992  50.14412
      38 2002 12 21  0  2 51 165  4.6390    182.58233   1060.79684    978.05017    -12.40868     18.16115     -0.34644    177.9    149.5      0.0     -2.0    529.9     49.2     49.0     49.0   3.12915  -0.40992  50.09594
      39 2002 12 21  0  2 55 805  4.6398    182.57000   1061.44299    978.26434    -12.79759     18.45745     -0.06480    177.9    149.5      0.0     -2.0    529.9     49.3     49.0     49.0   3.12881  -0.40992  50.15614
      40 2002 12 21  0  3  0 445  4.6407    182.55791   1062.07659    978.47728    -13.18491     18.47450      0.23307    177.9    149.5      0.0     -2.0    530.0     49.4     49.0     49.0   3.12847  -0.40992  50.07938
      41 2002 12 21  0  3  5  87  4.6415    182.54415   1062.69829    978.68818    -13.57440     19.63083      0.54261    177.9    149.5      0.0     -2.0    530.1     50.7     49.5     49.5   3.12813  -0.40992  50.13822
      42 2002 12 21  0  3  9 729  4.6424    182.52901   1063.31204    978.89805    -13.96851     20.08543      0.85960    177.9    149.5      0.0     -2.0    530.2     51.9     49.5     49.5   3.12780  -0.40992  50.09149
      43 2002 12 21  0  3 14 371  4.6422    182.51376   1063.92703    979.10632    -14.35974     19.90636      1.18026    177.9    149.5      0.0     -2.0    530.3     53.2     49.5     49.5   3.12746  -0.40992  50.13988
      44 2002 12 21  0  3 19  13  4.6417    182.49891   1064.53115    979.31362    -14.75353     21.16876      1.50075    177.9    149.5      0.0     -2.0    530.4     54.4     49.5     49.5   3.12712  -0.40992  50.17484
      45 2002 12 21  0  3 23 654  4.6411    182.48470   1065.12503    979.52007    -15.14940     21.87409      1.81848    177.9    149.5      0.0     -2.0    530.5     55.6     49.5     49.5   3.12678  -0.40992  50.20777
      46 2002 12 21  0  3 28 295  4.6407    182.47113   1065.70936    979.72602    -15.54515     21.82510      2.13212    177.9    149.5      0.0     -2.0    530.6     56.9     49.5     49.5   3.12644  -0.40992  50.22389
      47 2002 12 21  0  3 32 935  4.6404    182.45824   1066.28475    979.93154    -15.94291     22.75333      2.44017    177.9    149.5      0.0     -2.0    530.7     58.1     49.5     49.5   3.12611  -0.40992  50.24681
      48 2002 12 21  0  3 37 576  4.6402    182.44575   1066.85192    980.13727    -16.34483     23.68058      2.74173    177.9    149.5      0.0     -2.0    530.8     59.4     49.5     49.5   3.12577  -0.40992  50.21753
      49 2002 12 21  0  3 42 216  4.6400    182.43356   1067.41667    980.34336    -16.74630     23.97444      3.03776    177.9    149.5      0.0     -2.0    531.0     60.6     49.5     49.5   3.12543  -0.40992  50.19447
      50 2002 12 21  0  3 46 855  4.6398    182.41911   1067.97970    980.55019    -17.14684     24.42634      3.32940    177.9    149.5      0.0     -2.0    531.1     61.9     49.5     49.5   3.12510  -0.40992  50.20491
      51 2002 12 21  0  3 51 495  4.6397    182.40470   1068.53686    980.75804    -17.54937     25.50645      3.61689    177.9    149.5      0.0     -2.0    531.2     63.1     49.5     49.5   3.12476  -0.40992  50.21792
      52 2002 12 21  0  3 56 135  4.6398    182.39063   1069.08934    980.96789    -17.95204     26.09741      3.90082    177.9    149.5      0.0     -2.0    531.3     64.4     49.5     49.5   3.12442  -0.40992  50.17651
      53 2002 12 21  0  4  0 775  4.6399    182.37661   1069.63841    981.18004    -18.35123     26.23573      4.18126    177.9    149.5      0.0     -2.0    531.4     65.6     49.5     49.5   3.12408  -0.40992  50.11400
      54 2002 12 21  0  4  5 415  4.6401    182.36288   1070.18572    981.39488    -18.73966     27.41457      4.45761    177.9    149.5      0.0     -2.0    531.6     66.9     65.7     65.7   3.12375  -0.40992  50.15815
      55 2002 12 21  0  4 10  55  4.6405    182.34964   1070.73306    981.61318    -19.10551     28.22155      4.72880    177.9    149.5      0.0     -2.0    531.8     68.1     65.7     65.7   3.12341  -0.40992  50.20094
      56 2002 12 21  0  4 14 696  4.6409    182.33696   1071.28244    981.83596    -19.44611     28.52087      4.99333    177.9    149.5      0.0     -2.0    531.9     69.3     65.7     65.7   3.12307  -0.40992  50.22290
      57 2002 12 21  0  4 19 338  4.6413    182.32478   1071.83612    982.06369    -19.75032     29.47473      5.24903    177.9    149.5      0.0     -2.0    532.1     70.6     65.7     65.7   3.12273  -0.40992  50.25792
      58 2002 12 21  0  4 23 979  4.6417    182.31313   1072.39660    982.29748    -20.01381     30.41449      5.49369    177.9    149.5      0.0     -2.0    532.3     71.8     65.7     65.7   3.12240  -0.40992  50.22483
      59 2002 12 21  0  4 28 621  4.6423    182.30210   1072.96660    982.53741    -20.22225     30.94818      5.72513    177.9    149.5      0.0     -2.0    532.5     73.1     65.7     65.7   3.12206  -0.40992  50.26369
      60 2002 12 21  0  4 33 264  4.6428    182.29179   1073.55020    982.78498    -20.36518     31.66826      5.94131    177.9    149.5      0.0     -2.0    532.7     74.3     65.7     65.7   3.12172  -0.40992  50.21816
      61 2002 12 21  0  4 37 908  4.6434    182.28214   1074.14914    983.04013    -20.43183     32.66699      6.14036    177.9    149.5      0.0     -2.0    532.8     75.6     65.7     65.7   3.12138  -0.40992  50.26445
      62 2002 12 21  0  4 42 552  4.6440    182.27305   1074.76567    983.30441    -20.41154     33.34267      6.32092    177.9    149.5      0.0     -2.0    533.0     76.8     65.7     65.7   3.12104  -0.40992  50.15091
      63 2002 12 21  0  4 47 196  4.6447    182.26448   1075.40271    983.57718    -20.29416     33.94467      6.48219    177.9    149.5      0.0     -2.0    533.2     78.1     65.7     65.7   3.12071  -0.40992  50.20045
      64 2002 12 21  0  4 51 842  4.6453    182.25664   1076.06302    983.85968    -20.07050     34.93814      6.62367    177.9    149.5      0.0     -2.0    533.4     79.3     65.7     65.7   3.12037  -0.40992  50.20395
      65 2002 12 21  0  4 56 488  4.6459    182.24977   1076.74909    984.15172    -19.73280     35.65899      6.74572    177.9    149.5      0.0     -2.0    533.6     80.6     65.7     65.7   3.12003  -0.40992  50.25565
      66 2002 12 21  0  5  0   0  3.5118    182.24489   1077.29203    984.38181    -19.41169     36.02217      6.90823    177.9    149.5      0.0     -2.0    533.7     81.5     65.7     65.7   3.11978  -0.40992  50.15777
