GITM2 log file
## Inputs from UAM.in
# Resart= F
# Eddy coef:    50.000 Eddy P0:     0.010 Eddy P1:     0.005
# Statistical Models Only:  F Apex:  T
# EUV Data:  F
# AMIE: none           
none                                                                                                                                                                                                                                                                                                                                                                                                                                                                                                                                                                                                                    
# Solar Heating:  T Joule Heating:  T Auroral Heating:  T
# NO Cooling:  T O Cooling:  T
# Conduction:  T Turbulent Conduction:  T
# Pressure Grad:  T Ion Drag:  T Neutral Drag:  T
# Viscosity:  T Coriolis:  T Gravity:  T
# Ion Chemistry:  T Ion Advection:  T Neutral Chemistry:  T
 
#START
   iStep yyyy mm dd hh mm ss  ms      dt min(T) max(T) mean(T) min(VV) max(VV) mean(VV) F107 F107A By Bz Vx HP HPn HPs SubsolarLon SubsolarLat SubsolarVTEC
       2 2002 12 21  0  0  4 373  4.3735    157.75143   1316.92180   1012.56177    -13.74405      4.45058     -0.42095    177.9    149.5      0.0     -2.0    531.2     48.0    170.4    179.6   3.14127  -0.40992  58.14218
       3 2002 12 21  0  0  8 458  4.0846    157.83292   1316.72513   1012.66633    -18.94550      7.08574     -0.70184    177.9    149.5      0.0     -2.0    531.0     48.1    170.4    179.6   3.14098  -0.40992  58.16887
       4 2002 12 21  0  0 12 532  4.0740    157.86100   1316.53631   1012.78776    -15.51529      5.05416     -0.92636    177.9    149.5      0.0     -2.0    530.7     48.1    170.4    179.6   3.14068  -0.40992  58.08230
       5 2002 12 21  0  0 16 623  4.0915    157.86658   1316.34385   1012.92099    -12.12127      3.44949     -1.12376    177.9    149.5      0.0     -2.0    530.4     48.1    170.4    179.6   3.14038  -0.40992  58.17118
       6 2002 12 21  0  0 20 726  4.1024    157.87314   1316.15397   1013.06317    -13.35884      3.27927     -1.30111    177.9    149.5      0.0     -2.0    530.2     48.1    170.4    179.6   3.14009  -0.40992  58.19154
       7 2002 12 21  0  0 24 821  4.0952    157.89069   1315.97445   1013.21166    -15.27352      3.44784     -1.47179    177.9    149.5      0.0     -2.0    529.9     48.2    170.4    179.6   3.13979  -0.40992  58.26729
       8 2002 12 21  0  0 28 896  4.0753    157.91163   1315.81009   1013.36523    -16.14782      3.53720     -1.64016    177.9    149.5      0.0     -2.0    529.7     48.2    170.4    179.6   3.13949  -0.40992  58.13979
       9 2002 12 21  0  0 32 960  4.0637    157.92673   1315.66199   1013.52245    -17.56796      3.81229     -1.80796    177.9    149.5      0.0     -2.0    529.4     48.2    170.4    179.6   3.13920  -0.40992  58.19700
      10 2002 12 21  0  0 37  10  4.0500    157.93922   1315.53517   1013.68309    -19.33911      4.26989     -1.96994    177.9    149.5      0.0     -2.0    529.1     48.3    170.4    179.6   3.13890  -0.40992  58.20575
      11 2002 12 21  0  0 41  55  4.0450    157.95222   1315.42588   1013.84671    -20.63994      4.68960     -2.12111    177.9    149.5      0.0     -2.0    528.9     48.3    170.4    179.6   3.13861  -0.40992  58.25501
      12 2002 12 21  0  0 45 103  4.0481    157.96687   1315.33328   1014.01374    -22.53211      4.97275     -2.26972    177.9    149.5      0.0     -2.0    528.6     48.3    170.4    179.6   3.13831  -0.40992  58.12602
      13 2002 12 21  0  0 49 158  4.0553    157.98207   1315.25882   1014.18304    -24.50356      5.55460     -2.41808    177.9    149.5      0.0     -2.0    528.4     48.4    170.4    179.6   3.13802  -0.40992  58.16694
      14 2002 12 21  0  0 53 224  4.0653    157.99580   1315.20299   1014.35499    -25.70897      6.04520     -2.56699    177.9    149.5      0.0     -2.0    528.1     48.4    170.4    179.6   3.13772  -0.40992  58.14188
      15 2002 12 21  0  0 57 298  4.0741    158.00736   1315.16264   1014.52893    -28.44995      6.25674     -2.71608    177.9    149.5      0.0     -2.0    527.8     48.4    170.4    179.6   3.13743  -0.40992  58.18083
      16 2002 12 21  0  1  1 380  4.0819    158.01718   1315.27740   1014.70501    -29.84952      6.95205     -2.86335    177.9    149.5      0.0     -2.0    527.7     48.4    170.4    179.6   3.13713  -0.40992  58.05577
      17 2002 12 21  0  1  5 468  4.0886    158.02572   1315.85686   1014.88239    -32.48632      7.21695     -3.00990    177.9    149.5      0.0     -2.0    527.8     48.5    175.5    182.2   3.13683  -0.40992  58.09247
      18 2002 12 21  0  1  9 565  4.0966    158.03284   1316.42400   1015.06123    -34.09709      7.80559     -3.15586    177.9    149.5      0.0     -2.0    528.0     48.5    175.5    182.2   3.13653  -0.40992  58.05285
      19 2002 12 21  0  1 13 665  4.1006    158.03816   1316.97936   1015.24074    -36.67021      8.11539     -3.30202    177.9    149.5      0.0     -2.0    528.1     48.5    175.5    182.2   3.13624  -0.40992  58.09296
      20 2002 12 21  0  1 17 770  4.1044    158.04159   1317.52401   1015.42125    -38.10082      8.67612     -3.44803    177.9    149.5      0.0     -2.0    528.2     48.6    175.5    182.2   3.13594  -0.40992  57.93397
      21 2002 12 21  0  1 21 877  4.1077    158.04331   1318.05871   1015.60175    -40.97699      8.94204     -3.59363    177.9    149.5      0.0     -2.0    528.3     48.6    175.5    182.2   3.13564  -0.40992  57.96981
      22 2002 12 21  0  1 25 988  4.1108    158.04343   1318.58400   1015.78256    -41.61948      9.64980     -3.73839    177.9    149.5      0.0     -2.0    528.5     48.6    175.5    182.2   3.13534  -0.40992  57.96329
      23 2002 12 21  0  1 30 102  4.1136    158.04193   1319.10008   1015.96304    -45.20484      9.48377     -3.88223    177.9    149.5      0.0     -2.0    528.6     48.7    175.5    182.2   3.13504  -0.40992  58.00087
      24 2002 12 21  0  1 34 218  4.1160    158.03876   1319.60795   1016.14347    -45.22236     10.44086     -4.02405    177.9    149.5      0.0     -2.0    528.7     48.7    175.5    182.2   3.13474  -0.40992  57.84964
      25 2002 12 21  0  1 38 336  4.1180    158.03397   1320.10814   1016.32291    -49.04501     10.47162     -4.16347    177.9    149.5      0.0     -2.0    528.8     48.7    175.5    182.2   3.13444  -0.40992  57.88581
      26 2002 12 21  0  1 42 456  4.1198    158.02766   1320.60132   1016.50164    -50.63098     10.89623     -4.29953    177.9    149.5      0.0     -2.0    529.0     48.7    175.5    182.2   3.13414  -0.40992  57.85997
      27 2002 12 21  0  1 46 577  4.1212    158.02010   1321.08751   1016.67907    -51.77174     11.44265     -4.43168    177.9    149.5      0.0     -2.0    529.1     48.8    175.5    182.2   3.13384  -0.40992  57.89860
      28 2002 12 21  0  1 50 699  4.1223    158.01127   1321.56701   1016.85553    -55.36729     10.98160     -4.55905    177.9    149.5      0.0     -2.0    529.2     48.8    175.5    182.2   3.13354  -0.40992  57.74575
      29 2002 12 21  0  1 54 822  4.1231    158.00068   1322.04012   1017.03012    -54.59367     12.04444     -4.68066    177.9    149.5      0.0     -2.0    529.3     48.8    175.5    182.2   3.13324  -0.40992  57.78346
      30 2002 12 21  0  1 58 946  4.1236    157.98955   1322.50703   1017.20318    -58.17749     14.43800     -4.79599    177.9    149.5      0.0     -2.0    529.5     48.9    175.5    182.2   3.13294  -0.40992  57.76604
      31 2002 12 21  0  2  3  70  4.1238    157.97805   1322.96783   1017.37416    -60.45224     15.77440     -4.90427    177.9    149.5      0.0     -2.0    529.5     48.9    175.5    182.2   3.13264  -0.40992  57.80780
      32 2002 12 21  0  2  7 193  4.1238    157.96618   1323.42281   1017.54336    -58.86741     18.37546     -5.00515    177.9    149.5      0.0     -2.0    529.5     48.9    174.9    181.5   3.13234  -0.40992  57.63984
      33 2002 12 21  0  2 11 316  4.1221    157.95411   1323.87186   1017.71004    -63.64547     20.00669     -5.09871    177.9    149.5      0.0     -2.0    529.6     48.9    174.9    181.5   3.13204  -0.40992  57.67845
      34 2002 12 21  0  2 15 438  4.1222    157.94063   1324.31518   1017.87469    -64.80231     21.64737     -5.18460    177.9    149.5      0.0     -2.0    529.6     49.0    174.9    181.5   3.13174  -0.40992  57.67330
      35 2002 12 21  0  2 19 560  4.1219    157.92566   1324.75278   1018.03674    -63.53197     24.31693     -5.26359    177.9    149.5      0.0     -2.0    529.6     49.0    174.9    181.5   3.13144  -0.40992  57.71407
      36 2002 12 21  0  2 23 681  4.1214    157.91207   1325.18465   1018.19667    -68.04987     25.54518     -5.33640    177.9    149.5      0.0     -2.0    529.7     49.0    174.9    181.5   3.13114  -0.40992  57.55799
      37 2002 12 21  0  2 27 802  4.1207    157.90018   1325.61075   1018.35386    -69.04203     28.04075     -5.40359    177.9    149.5      0.0     -2.0    529.7     49.1    174.9    181.5   3.13084  -0.40992  57.59757
      38 2002 12 21  0  2 31 922  4.1198    157.89016   1326.03104   1018.50872    -67.69335     30.82648     -5.46625    177.9    149.5      0.0     -2.0    529.7     49.1    174.9    181.5   3.13054  -0.40992  57.57925
      39 2002 12 21  0  2 36  40  4.1186    157.88202   1326.44546   1018.66092    -72.27674     32.64888     -5.52564    177.9    149.5      0.0     -2.0    529.8     49.1    174.9    181.5   3.13025  -0.40992  57.62253
      40 2002 12 21  0  2 40 158  4.1174    157.87574   1326.85393   1018.81092    -73.71589     34.24802     -5.58189    177.9    149.5      0.0     -2.0    529.8     49.2    174.9    181.5   3.12995  -0.40992  57.45821
      41 2002 12 21  0  2 44 274  4.1160    157.86856   1327.25636   1018.95819    -70.61929     38.26075     -5.63549    177.9    149.5      0.0     -2.0    529.8     49.2    174.9    181.5   3.12965  -0.40992  57.49882
      42 2002 12 21  0  2 48 388  4.1145    157.86117   1327.65268   1019.10328    -75.74152     40.24773     -5.68657    177.9    149.5      0.0     -2.0    529.9     49.2    174.9    181.5   3.12935  -0.40992  57.49220
      43 2002 12 21  0  2 52 501  4.1130    157.85481   1328.04280   1019.24588    -78.33702     40.78325     -5.73403    177.9    149.5      0.0     -2.0    529.9     49.2    174.9    181.5   3.12905  -0.40992  57.53616
      44 2002 12 21  0  2 56 612  4.1114    157.84961   1328.42665   1019.38655    -76.14825     45.07845     -5.77618    177.9    149.5      0.0     -2.0    529.9     49.3    174.9    181.5   3.12875  -0.40992  57.37151
      45 2002 12 21  0  3  0 722  4.1099    157.84549   1328.80418   1019.52480    -78.13011     47.76654     -5.81137    177.9    149.5      0.0     -2.0    530.0     49.5    174.9    181.5   3.12845  -0.40992  57.41270
      46 2002 12 21  0  3  4 831  4.1084    157.84237   1329.17644   1019.66139    -81.42922     48.69784     -5.83652    177.9    149.5      0.0     -2.0    530.1     50.6    179.1    192.5   3.12815  -0.40992  57.40526
      47 2002 12 21  0  3  8 937  4.1065    157.84017   1329.54240   1019.79599    -80.33117     52.11604     -5.84825    177.9    149.5      0.0     -2.0    530.2     51.7    179.1    192.5   3.12785  -0.40992  57.44987
      48 2002 12 21  0  3 13  41  4.1041    157.83873   1329.90197   1019.92913    -78.64131     55.40203     -5.84275    177.9    149.5      0.0     -2.0    530.3     52.8    179.1    192.5   3.12755  -0.40992  57.28552
      49 2002 12 21  0  3 17 144  4.1023    157.83865   1330.25523   1020.06039    -82.52280     56.76117     -5.81642    177.9    149.5      0.0     -2.0    530.4     53.9    179.1    192.5   3.12726  -0.40992  57.32747
      50 2002 12 21  0  3 21 244  4.1006    157.83959   1330.60229   1020.19053    -83.11999     59.88749     -5.76502    177.9    149.5      0.0     -2.0    530.5     55.0    179.1    192.5   3.12696  -0.40992  57.32087
      51 2002 12 21  0  3 25 343  4.0992    157.84071   1330.94334   1020.31939    -80.28114     64.50271     -5.68465    177.9    149.5      0.0     -2.0    530.6     56.1    179.1    192.5   3.12666  -0.40992  57.36668
      52 2002 12 21  0  3 29 441  4.0980    157.84123   1331.27861   1020.44766    -81.85691     66.23818     -5.57188    177.9    149.5      0.0     -2.0    530.6     57.2    179.1    192.5   3.12636  -0.40992  57.20044
      53 2002 12 21  0  3 33 538  4.0967    157.84285   1331.60841   1020.57491    -83.99975     65.97718     -5.42403    177.9    149.5      0.0     -2.0    530.7     58.3    179.1    192.5   3.12606  -0.40992  57.24278
      54 2002 12 21  0  3 37 634  4.0956    157.84612   1331.93314   1020.70182    -83.06169     71.79926     -5.23917    177.9    149.5      0.0     -2.0    530.8     59.4    179.1    192.5   3.12577  -0.40992  57.23549
      55 2002 12 21  0  3 41 728  4.0945    157.84962   1332.25359   1020.82835    -79.76291     75.44303     -5.01660    177.9    149.5      0.0     -2.0    530.9     60.5    179.1    192.5   3.12547  -0.40992  57.27964
      56 2002 12 21  0  3 45 822  4.0938    157.85281   1332.57259   1020.95515    -82.73969     76.02503     -4.75750    177.9    149.5      0.0     -2.0    531.0     61.6    179.1    192.5   3.12517  -0.40992  57.13366
      57 2002 12 21  0  3 49 915  4.0933    157.85598   1332.88937   1021.08186    -83.37546     75.89586     -4.46375    177.9    149.5      0.0     -2.0    531.1     62.7    179.1    192.5   3.12487  -0.40992  57.17716
      58 2002 12 21  0  3 54   9  4.0931    157.85938   1333.20458   1021.20912    -81.93158     82.58373     -4.13801    177.9    149.5      0.0     -2.0    531.2     63.8    179.1    192.5   3.12458  -0.40992  57.14891
      59 2002 12 21  0  3 58 102  4.0932    157.86301   1333.51911   1021.33680    -80.35784     85.63885     -3.78435    177.9    149.5      0.0     -2.0    531.3     64.9    179.1    192.5   3.12428  -0.40992  57.19616
      60 2002 12 21  0  4  2 195  4.0936    157.86658   1333.83391   1021.46555    -82.32027     85.57085     -3.40785    177.9    149.5      0.0     -2.0    531.5     66.0    179.1    192.5   3.12398  -0.40992  57.04422
      61 2002 12 21  0  4  6 289  4.0942    157.86987   1334.15106   1021.59510    -81.92172     84.84827     -3.01359    177.9    149.5      0.0     -2.0    531.6     67.1    192.9    206.4   3.12368  -0.40992  57.08905
      62 2002 12 21  0  4 10 384  4.0944    157.87283   1334.47073   1021.72577    -80.42964     91.94684     -2.60664    177.9    149.5      0.0     -2.0    531.8     68.2    192.9    206.4   3.12338  -0.40992  57.06985
      63 2002 12 21  0  4 14 478  4.0941    157.87546   1334.79389   1021.85746    -79.67360     94.85235     -2.19245    177.9    149.5      0.0     -2.0    531.9     69.3    192.9    206.4   3.12309  -0.40992  57.11683
      64 2002 12 21  0  4 18 573  4.0947    157.87775   1335.12175   1021.99060    -80.38983     94.69567     -1.77550    177.9    149.5      0.0     -2.0    532.1     70.4    192.9    206.4   3.12279  -0.40992  56.96591
      65 2002 12 21  0  4 22 668  4.0953    157.87961   1335.45556   1022.12475    -79.72823     94.14703     -1.35991    177.9    149.5      0.0     -2.0    532.3     71.5    192.9    206.4   3.12249  -0.40992  57.01009
      66 2002 12 21  0  4 26 764  4.0963    157.88096   1335.79659   1022.26040    -77.70174     99.89735     -0.94881    177.9    149.5      0.0     -2.0    532.4     72.6    192.9    206.4   3.12219  -0.40992  56.99432
      67 2002 12 21  0  4 30 862  4.0975    157.88174   1336.14617   1022.39725    -77.31652    103.18661     -0.54443    177.9    149.5      0.0     -2.0    532.6     73.7    192.9    206.4   3.12189  -0.40992  57.04276
      68 2002 12 21  0  4 34 961  4.0990    157.88196   1336.50568   1022.53565    -77.62219    104.72395     -0.14796    177.9    149.5      0.0     -2.0    532.7     74.8    192.9    206.4   3.12160  -0.40992  56.88493
      69 2002 12 21  0  4 39  61  4.1006    157.88168   1336.87651   1022.67507    -76.48039    104.61548      0.23963    177.9    149.5      0.0     -2.0    532.9     75.9    192.9    206.4   3.12130  -0.40992  56.93071
      70 2002 12 21  0  4 43 164  4.1023    157.88086   1337.26001   1022.81581    -73.63686    106.21765      0.61882    177.9    149.5      0.0     -2.0    533.0     77.0    192.9    206.4   3.12100  -0.40992  56.90916
      71 2002 12 21  0  4 47 268  4.1041    157.87941   1337.65758   1022.95748    -74.46574    110.12076      0.99070    177.9    149.5      0.0     -2.0    533.2     78.1    192.9    206.4   3.12070  -0.40992  56.95796
      72 2002 12 21  0  4 51 374  4.1059    157.87733   1338.07052   1023.10029    -73.73591    113.70699      1.35694    177.9    149.5      0.0     -2.0    533.4     79.2    192.9    206.4   3.12040  -0.40992  56.81371
      73 2002 12 21  0  4 55 481  4.1077    157.87467   1338.50014   1023.24358    -71.35031    114.32132      1.71896    177.9    149.5      0.0     -2.0    533.5     80.3    192.9    206.4   3.12010  -0.40992  56.86180
      74 2002 12 21  0  4 59 591  4.1095    157.87147   1338.94465   1023.38755    -70.80863    112.06696      2.07840    177.9    149.5      0.0     -2.0    533.7     81.4    192.9    206.4   3.11981  -0.40992  56.82890
      75 2002 12 21  0  5  0   0  0.4086    157.87754   1339.06394   1023.38900    -70.74656    111.23320      2.22673    177.9    149.5      0.0     -2.0    533.7     81.5    192.9    206.4   3.11978  -0.40992  56.83526
