GITM2 log file
## Inputs from UAM.in
# Resart= F
# Eddy coef:    50.000 Eddy P0:     0.010 Eddy P1:     0.005
# Statistical Models Only:  F Apex:  F
# EUV Data:  F
# AMIE: none           
none                                                                                                                                                                                                                                                                                                                                                                                                                                                                                                                                                                                                                    
# Solar Heating:  T Joule Heating:  T Auroral Heating:  T
# NO Cooling:  T O Cooling:  T
# Conduction:  T Turbulent Conduction:  T
# Pressure Grad:  T Ion Drag:  T Neutral Drag:  T
# Viscosity:  T Coriolis:  T Gravity:  T
# Ion Chemistry:  T Ion Advection:  T Neutral Chemistry:  T
 
#START
   iStep yyyy mm dd hh mm ss  ms      dt min(T) max(T) mean(T) min(VV) max(VV) mean(VV) F107 F107A By Bz Vx HP HPn HPs SubsolarLon SubsolarLat SubsolarVTEC
       2 2002 12 21  0  0  4 675  4.6756    185.64675   1027.47361    968.40812     -1.33352      0.40456     -0.33588    177.9    149.5      0.0     -2.0    531.2     48.0     47.9     47.9   3.14125  -0.40992  58.19867
       3 2002 12 21  0  0  9 230  4.5550    185.63965   1029.00612    968.67433     -3.88326      0.79282     -0.63828    177.9    149.5      0.0     -2.0    530.9     48.1     47.9     47.9   3.14092  -0.40992  58.26158
       4 2002 12 21  0  0 13 778  4.5476    184.87101   1030.76396    968.92811     -5.03499      1.76338     -0.88296    177.9    149.5      0.0     -2.0    530.6     48.1     47.9     47.9   3.14059  -0.40992  58.09283
       5 2002 12 21  0  0 18 323  4.5451    184.36601   1032.45906    969.18918     -3.01165      2.58920     -1.04901    177.9    149.5      0.0     -2.0    530.3     48.1     47.9     47.9   3.14026  -0.40992  58.22706
       6 2002 12 21  0  0 22 874  4.5508    184.18392   1034.03899    969.45947     -3.23722      3.25546     -1.18489    177.9    149.5      0.0     -2.0    530.0     48.2     47.9     47.9   3.13993  -0.40992  58.21984
       7 2002 12 21  0  0 27 431  4.5574    184.01498   1035.51634    969.73699     -3.50928      3.70793     -1.32540    177.9    149.5      0.0     -2.0    529.7     48.2     47.9     47.9   3.13960  -0.40992  58.35450
       8 2002 12 21  0  0 32   3  4.5721    183.85576   1036.91589    970.02127     -3.76508      3.97627     -1.45804    177.9    149.5      0.0     -2.0    529.5     48.2     47.9     47.9   3.13927  -0.40992  58.21594
       9 2002 12 21  0  0 36 576  4.5731    183.70618   1038.25946    970.30850     -4.00175      4.43563     -1.56825    177.9    149.5      0.0     -2.0    529.2     48.3     47.9     47.9   3.13893  -0.40992  58.33910
      10 2002 12 21  0  0 41 151  4.5748    183.59830   1039.53149    970.59836     -4.20526      4.82984     -1.67304    177.9    149.5      0.0     -2.0    528.9     48.3     47.9     47.9   3.13860  -0.40992  58.34622
      11 2002 12 21  0  0 45 729  4.5778    183.48323   1040.73867    970.88897     -4.38240      5.16740     -1.76760    177.9    149.5      0.0     -2.0    528.6     48.3     47.9     47.9   3.13827  -0.40992  58.45955
      12 2002 12 21  0  0 50 310  4.5816    183.38009   1041.88726    971.18031     -4.53293      5.39806     -1.85763    177.9    149.5      0.0     -2.0    528.3     48.4     47.9     47.9   3.13793  -0.40992  58.28440
      13 2002 12 21  0  0 54 886  4.5759    183.28342   1042.99423    971.46956     -4.67528      6.01959     -1.94413    177.9    149.5      0.0     -2.0    528.0     48.4     47.9     47.9   3.13760  -0.40992  58.39074
      14 2002 12 21  0  0 59 458  4.5718    183.18826   1044.14703    971.75724     -4.79691      6.60191     -2.02079    177.9    149.5      0.0     -2.0    527.7     48.4     47.9     47.9   3.13727  -0.40992  58.40189
      15 2002 12 21  0  1  4  27  4.5690    183.11079   1045.27431    972.04198     -4.89063      6.82122     -2.08880    177.9    149.5      0.0     -2.0    527.8     48.5     47.9     47.9   3.13694  -0.40992  58.50091
      16 2002 12 21  0  1  8 595  4.5679    183.03802   1046.36483    972.32449     -4.95883      7.81923     -2.14757    177.9    149.5      0.0     -2.0    527.9     48.5     48.3     48.3   3.13660  -0.40992  58.31651
      17 2002 12 21  0  1 13 163  4.5683    182.97341   1047.42031    972.60339     -5.28421      7.98292     -2.19579    177.9    149.5      0.0     -2.0    528.1     48.5     48.3     48.3   3.13627  -0.40992  58.41459
      18 2002 12 21  0  1 17 732  4.5685    182.92253   1048.44216    972.87939     -5.64145      8.92631     -2.23436    177.9    149.5      0.0     -2.0    528.2     48.6     48.3     48.3   3.13594  -0.40992  58.42726
      19 2002 12 21  0  1 22 301  4.5692    182.87376   1049.44960    973.15159     -6.00111      8.97443     -2.26391    177.9    149.5      0.0     -2.0    528.3     48.6     48.3     48.3   3.13561  -0.40992  58.51935
      20 2002 12 21  0  1 26 871  4.5706    182.83223   1050.46720    973.42084     -6.36338      9.97395     -2.28308    177.9    149.5      0.0     -2.0    528.5     48.6     48.3     48.3   3.13528  -0.40992  58.32669
      21 2002 12 21  0  1 31 444  4.5723    182.79738   1051.45626    973.68602     -6.72837      9.81296     -2.29205    177.9    149.5      0.0     -2.0    528.6     48.7     48.3     48.3   3.13494  -0.40992  58.42011
      22 2002 12 21  0  1 36  17  4.5739    182.76828   1052.41746    973.94799     -7.09616     10.98295     -2.28981    177.9    149.5      0.0     -2.0    528.8     48.7     48.3     48.3   3.13461  -0.40992  58.42910
      23 2002 12 21  0  1 40 593  4.5753    182.74473   1053.37069    974.20595     -7.46835     11.06099     -2.27754    177.9    149.5      0.0     -2.0    528.9     48.7     48.3     48.3   3.13428  -0.40992  58.51834
      24 2002 12 21  0  1 45 169  4.5766    182.72445   1054.32962    974.46076     -7.84368     11.87491     -2.25538    177.9    149.5      0.0     -2.0    529.0     48.8     48.3     48.3   3.13394  -0.40992  58.31870
      25 2002 12 21  0  1 49 747  4.5776    182.70668   1055.26286    974.71150     -8.22163     12.42659     -2.22322    177.9    149.5      0.0     -2.0    529.2     48.8     48.3     48.3   3.13361  -0.40992  58.41048
      26 2002 12 21  0  1 54 325  4.5785    182.69106   1056.17117    974.95908     -8.60202     12.55144     -2.18096    177.9    149.5      0.0     -2.0    529.3     48.8     48.3     48.3   3.13328  -0.40992  58.42163
      27 2002 12 21  0  1 58 905  4.5791    182.67841   1057.06701    975.20286     -8.98468     13.62878     -2.12797    177.9    149.5      0.0     -2.0    529.5     48.9     48.3     48.3   3.13295  -0.40992  58.50889
      28 2002 12 21  0  2  3 484  4.5796    182.66840   1057.96882    975.44376     -9.36941     13.56582     -2.06425    177.9    149.5      0.0     -2.0    529.5     48.9     48.3     48.3   3.13261  -0.40992  58.31835
      29 2002 12 21  0  2  8  64  4.5800    182.65969   1058.84735    975.68091     -9.75594     14.43374     -1.98916    177.9    149.5      0.0     -2.0    529.6     48.9     48.7     48.7   3.13228  -0.40992  58.40882
      30 2002 12 21  0  2 12 644  4.5802    182.65101   1059.70344    975.91531    -10.14397     15.18440     -1.90130    177.9    149.5      0.0     -2.0    529.6     49.0     48.7     48.7   3.13195  -0.40992  58.41170
      31 2002 12 21  0  2 17 225  4.5804    182.64273   1060.54197    976.14635    -10.53327     14.79231     -1.79910    177.9    149.5      0.0     -2.0    529.6     49.0     48.7     48.7   3.13161  -0.40992  58.49824
      32 2002 12 21  0  2 21 805  4.5805    182.63487   1061.38605    976.37481    -10.92347     16.16994     -1.68100    177.9    149.5      0.0     -2.0    529.7     49.0     48.7     48.7   3.13128  -0.40992  58.30238
      33 2002 12 21  0  2 26 386  4.5805    182.62724   1062.20930    976.60026    -11.31939     16.73858     -1.54445    177.9    149.5      0.0     -2.0    529.7     49.1     48.7     48.7   3.13095  -0.40992  58.39340
      34 2002 12 21  0  2 30 966  4.5805    182.61956   1063.01261    976.82347    -11.71797     16.45327     -1.38745    177.9    149.5      0.0     -2.0    529.7     49.1     48.7     48.7   3.13061  -0.40992  58.39668
      35 2002 12 21  0  2 35 547  4.5805    182.61171   1063.79686    977.04391    -12.11729     17.77934     -1.20897    177.9    149.5      0.0     -2.0    529.8     49.1     48.7     48.7   3.13028  -0.40992  58.48528
      36 2002 12 21  0  2 40 127  4.5805    182.60373   1064.56848    977.26251    -12.51680     18.32631     -1.00752    177.9    149.5      0.0     -2.0    529.8     49.2     48.7     48.7   3.12995  -0.40992  58.28364
      37 2002 12 21  0  2 44 708  4.5805    182.59558   1065.33858    977.47868    -12.91586     17.95627     -0.78288    177.9    149.5      0.0     -2.0    529.8     49.2     48.7     48.7   3.12961  -0.40992  58.37383
      38 2002 12 21  0  2 49 288  4.5805    182.58690   1066.09133    977.69323    -13.31379     19.26352     -0.53669    177.9    149.5      0.0     -2.0    529.9     49.2     48.7     48.7   3.12928  -0.40992  58.37970
      39 2002 12 21  0  2 53 869  4.5804    182.57497   1066.82754    977.90571    -13.70964     19.92355     -0.27068    177.9    149.5      0.0     -2.0    529.9     49.3     48.7     48.7   3.12895  -0.40992  58.46597
      40 2002 12 21  0  2 58 449  4.5804    182.56046   1067.54802    978.11697    -14.10831     19.64862      0.01266    177.9    149.5      0.0     -2.0    529.9     49.3     48.7     48.7   3.12862  -0.40992  58.27323
      41 2002 12 21  0  3  3  30  4.5805    182.54432   1068.25358    978.32641    -14.50983     20.75844      0.30952    177.9    149.5      0.0     -2.0    530.0     50.1     48.7     48.7   3.12828  -0.40992  58.36430
      42 2002 12 21  0  3  7 610  4.5805    182.52889   1068.94659    978.53489    -14.90889     21.55849      0.61570    177.9    149.5      0.0     -2.0    530.1     51.3     50.0     50.0   3.12795  -0.40992  58.35959
      43 2002 12 21  0  3 12 191  4.5806    182.51403   1069.63875    978.74193    -15.30407     21.53212      0.92739    177.9    149.5      0.0     -2.0    530.2     52.6     50.0     50.0   3.12762  -0.40992  58.44802
      44 2002 12 21  0  3 16 771  4.5807    182.49936   1070.31777    978.94841    -15.69966     22.34984      1.24089    177.9    149.5      0.0     -2.0    530.3     53.8     50.0     50.0   3.12728  -0.40992  58.24554
      45 2002 12 21  0  3 21 352  4.5808    182.48559   1070.98444    979.15378    -16.09882     23.37043      1.55282    177.9    149.5      0.0     -2.0    530.5     55.0     50.0     50.0   3.12695  -0.40992  58.33461
      46 2002 12 21  0  3 25 933  4.5810    182.47214   1071.63955    979.35894    -16.49109     23.69489      1.86123    177.9    149.5      0.0     -2.0    530.6     56.3     50.0     50.0   3.12662  -0.40992  58.34627
      47 2002 12 21  0  3 30 514  4.5812    182.45910   1072.28362    979.56349    -16.88969     24.08594      2.16488    177.9    149.5      0.0     -2.0    530.7     57.5     50.0     50.0   3.12628  -0.40992  58.43129
      48 2002 12 21  0  3 35  96  4.5815    182.44649   1072.91767    979.76838    -17.28158     25.26179      2.46253    177.9    149.5      0.0     -2.0    530.8     58.7     50.0     50.0   3.12595  -0.40992  58.23721
      49 2002 12 21  0  3 39 678  4.5818    182.43439   1073.54250    979.97328    -17.66972     25.89485      2.75423    177.9    149.5      0.0     -2.0    530.9     59.9     50.0     50.0   3.12562  -0.40992  58.32743
      50 2002 12 21  0  3 44 260  4.5822    182.42289   1074.16024    980.17910    -18.05647     25.88984      3.04101    177.9    149.5      0.0     -2.0    531.0     61.2     50.0     50.0   3.12528  -0.40992  58.32140
      51 2002 12 21  0  3 48 842  4.5825    182.41184   1074.77774    980.38567    -18.43552     27.17266      3.32341    177.9    149.5      0.0     -2.0    531.1     62.4     50.0     50.0   3.12495  -0.40992  58.40874
      52 2002 12 21  0  3 53 425  4.5829    182.39839   1075.38886    980.59418    -18.81305     28.04871      3.60184    177.9    149.5      0.0     -2.0    531.2     63.6     50.0     50.0   3.12462  -0.40992  58.20775
      53 2002 12 21  0  3 58   8  4.5832    182.38398   1075.99483    980.80427    -19.19141     28.34900      3.87675    177.9    149.5      0.0     -2.0    531.3     64.9     50.0     50.0   3.12428  -0.40992  58.29712
      54 2002 12 21  0  4  2 592  4.5836    182.36976   1076.59707    981.01726    -19.56895     29.16214      4.14782    177.9    149.5      0.0     -2.0    531.5     66.1     50.0     50.0   3.12395  -0.40992  58.30247
      55 2002 12 21  0  4  7 176  4.5840    182.35578   1077.19720    981.23339    -19.94296     30.19463      4.41415    177.9    149.5      0.0     -2.0    531.7     67.3     66.0     66.0   3.12362  -0.40992  58.38820
      56 2002 12 21  0  4 11 761  4.5845    182.34221   1077.79703    981.45368    -20.30836     30.77706      4.67469    177.9    149.5      0.0     -2.0    531.8     68.6     66.0     66.0   3.12328  -0.40992  58.19115
      57 2002 12 21  0  4 16 345  4.5842    182.32916   1078.39845    981.67815    -20.65706     31.28269      4.92774    177.9    149.5      0.0     -2.0    532.0     69.8     66.0     66.0   3.12295  -0.40992  58.28076
      58 2002 12 21  0  4 20 928  4.5834    182.31663   1079.00361    981.90811    -20.96995     32.40019      5.17121    177.9    149.5      0.0     -2.0    532.2     71.0     66.0     66.0   3.12262  -0.40992  58.28363
      59 2002 12 21  0  4 25 512  4.5836    182.30468   1079.61509    982.14365    -21.24151     33.20437      5.40286    177.9    149.5      0.0     -2.0    532.4     72.2     66.0     66.0   3.12228  -0.40992  58.37046
      60 2002 12 21  0  4 30  96  4.5840    182.29341   1080.23566    982.38615    -21.45324     33.64003      5.62061    177.9    149.5      0.0     -2.0    532.5     73.5     66.0     66.0   3.12195  -0.40992  58.16170
      61 2002 12 21  0  4 34 680  4.5845    182.28292   1080.86805    982.63564    -21.59827     34.81978      5.82257    177.9    149.5      0.0     -2.0    532.7     74.7     66.0     66.0   3.12162  -0.40992  58.24996
      62 2002 12 21  0  4 39 265  4.5849    182.27320   1081.51508    982.89333    -21.66631     35.72304      6.00714    177.9    149.5      0.0     -2.0    532.9     75.9     66.0     66.0   3.12128  -0.40992  58.25761
      63 2002 12 21  0  4 43 850  4.5852    182.26413   1082.17947    983.15929    -21.64727     36.26778      6.17312    177.9    149.5      0.0     -2.0    533.1     77.2     66.0     66.0   3.12095  -0.40992  58.34149
      64 2002 12 21  0  4 48 436  4.5855    182.25583   1082.86394    983.43459    -21.53167     37.29846      6.31983    177.9    149.5      0.0     -2.0    533.2     78.4     66.0     66.0   3.12062  -0.40992  58.15301
      65 2002 12 21  0  4 53  22  4.5858    182.24834   1083.57102    983.71884    -21.31104     38.22825      6.44709    177.9    149.5      0.0     -2.0    533.4     79.6     66.0     66.0   3.12028  -0.40992  58.24306
      66 2002 12 21  0  4 57 608  4.5860    182.24152   1084.30284    984.01280    -20.97834     38.86560      6.55523    177.9    149.5      0.0     -2.0    533.6     80.9     66.0     66.0   3.11995  -0.40992  58.22896
      67 2002 12 21  0  5  0   0  2.3919    182.23759   1084.71043    984.17259    -20.77555     39.33259      6.72035    177.9    149.5      0.0     -2.0    533.7     81.5     66.0     66.0   3.11978  -0.40992  58.27836
