GITM2 log file
## Inputs from UAM.in
# Resart= F
# Eddy coef:    50.000 Eddy P0:     0.010 Eddy P1:     0.005
# Statistical Models Only:  F Apex:  T
# EUV Data:  F
# AMIE: none           
none                                                                                                                                                                                                                                                                                                                                                                                                                                                                                                                                                                                                                    
# Solar Heating:  T Joule Heating:  T Auroral Heating:  T
# NO Cooling:  T O Cooling:  T
# Conduction:  T Turbulent Conduction:  T
# Pressure Grad:  T Ion Drag:  T Neutral Drag:  T
# Viscosity:  T Coriolis:  T Gravity:  T
# Ion Chemistry:  T Ion Advection:  T Neutral Chemistry:  T
 
#START
   iStep yyyy mm dd hh mm ss  ms      dt min(T) max(T) mean(T) min(VV) max(VV) mean(VV) F107 F107A By Bz Vx HP HPn HPs SubsolarLon SubsolarLat SubsolarVTEC
       2 2002 12 21  0  0  4 373  4.3732    157.56547   1265.28916    973.92778     -9.27852      7.17453     -0.34920    150.0    150.0      0.0     -2.0    400.0      1.0    325.2    376.5   3.14127  -0.40992  47.39838
       3 2002 12 21  0  0  8 569  4.1965    157.51421   1265.09658    973.96136     -9.31064      6.74423     -0.53910    150.0    150.0      0.0     -2.0    400.0      1.0    325.2    376.5   3.14097  -0.40992  47.23635
       4 2002 12 21  0  0 12 681  4.1119    157.50511   1264.91060    974.01038     -8.71471      5.32746     -0.67121    150.0    150.0      0.0     -2.0    400.0      1.0    325.2    376.5   3.14067  -0.40992  47.13790
       5 2002 12 21  0  0 16 809  4.1278    157.52576   1264.70782    974.06746     -9.98587      5.62611     -0.77899    150.0    150.0      0.0     -2.0    400.0      1.0    325.2    376.5   3.14037  -0.40992  47.06234
       6 2002 12 21  0  0 20 918  4.1096    157.57532   1264.49960    974.12857    -10.51622      5.48921     -0.88084    150.0    150.0      0.0     -2.0    400.0      1.0    325.2    376.5   3.14007  -0.40992  46.99419
       7 2002 12 21  0  0 24 989  4.0705    157.61144   1264.29063    974.19164    -11.66478      6.15149     -0.99045    150.0    150.0      0.0     -2.0    400.0      1.0    325.2    376.5   3.13978  -0.40992  46.93488
       8 2002 12 21  0  0 29  26  4.0374    157.61535   1264.08269    974.25599    -12.96399      7.01976     -1.09550    150.0    150.0      0.0     -2.0    400.0      1.0    325.2    376.5   3.13948  -0.40992  46.87762
       9 2002 12 21  0  0 33  51  4.0251    157.61524   1263.87635    974.32152    -13.81270      7.48282     -1.18887    150.0    150.0      0.0     -2.0    400.0      1.0    325.2    376.5   3.13919  -0.40992  46.82558
      10 2002 12 21  0  0 37  69  4.0179    157.63679   1263.67392    974.38813    -15.05657      8.18372     -1.26785    150.0    150.0      0.0     -2.0    400.0      1.0    325.2    376.5   3.13890  -0.40992  46.77375
      11 2002 12 21  0  0 41  85  4.0155    157.68669   1263.47617    974.45559    -16.77054      9.31428     -1.34384    150.0    150.0      0.0     -2.0    400.0      1.0    325.2    376.5   3.13860  -0.40992  46.72601
      12 2002 12 21  0  0 45 112  4.0272    157.73402   1263.28230    974.52382    -18.03097     10.10521     -1.43797    150.0    150.0      0.0     -2.0    400.0      1.0    325.2    376.5   3.13831  -0.40992  46.67764
      13 2002 12 21  0  0 49 156  4.0441    157.74609   1263.09258    974.59255    -19.27860     10.74107     -1.54092    150.0    150.0      0.0     -2.0    400.0      1.0    325.2    376.5   3.13802  -0.40992  46.63256
      14 2002 12 21  0  0 53 213  4.0569    157.74283   1262.90749    974.66172    -20.97150     12.04927     -1.63335    150.0    150.0      0.0     -2.0    400.0      1.0    325.2    376.5   3.13772  -0.40992  46.58647
      15 2002 12 21  0  0 57 276  4.0634    157.74334   1262.72729    974.73120    -23.11049     12.80922     -1.70948    150.0    150.0      0.0     -2.0    400.0      1.0    325.2    376.5   3.13743  -0.40992  46.54334
      16 2002 12 21  0  1  1 346  4.0695    157.76479   1262.55163    974.80099    -24.00547     13.56969     -1.78062    150.0    150.0      0.0     -2.0    400.0      1.0    325.2    376.5   3.13713  -0.40992  46.49904
      17 2002 12 21  0  1  5 425  4.0786    157.79512   1262.38014    974.87087    -26.57555     14.66717     -1.86633    150.0    150.0      0.0     -2.0    400.0      1.0    325.2    376.5   3.13683  -0.40992  46.45727
      18 2002 12 21  0  1  9 514  4.0892    157.80691   1262.21278    974.94064    -28.89949     14.93013     -1.96484    150.0    150.0      0.0     -2.0    400.0      1.0    325.2    376.5   3.13654  -0.40992  46.41429
      19 2002 12 21  0  1 13 610  4.0966    157.80168   1262.04981    975.01011    -30.85981     16.41360     -2.06227    150.0    150.0      0.0     -2.0    400.0      1.0    325.2    376.5   3.13624  -0.40992  46.37379
      20 2002 12 21  0  1 17 712  4.1015    157.78839   1261.89116    975.07929    -31.93882     16.57683     -2.14841    150.0    150.0      0.0     -2.0    400.0      1.0    325.2    376.5   3.13594  -0.40992  46.33192
      21 2002 12 21  0  1 21 818  4.1061    157.78234   1261.73664    975.14807    -34.81655     17.89588     -2.22699    150.0    150.0      0.0     -2.0    400.0      1.0    325.2    376.5   3.13564  -0.40992  46.29242
      22 2002 12 21  0  1 25 931  4.1129    157.78764   1261.58606    975.21636    -36.68736     18.37041     -2.31402    150.0    150.0      0.0     -2.0    400.0      1.0    325.2    376.5   3.13534  -0.40992  46.25146
      23 2002 12 21  0  1 30  51  4.1201    157.79506   1261.43950    975.28386    -39.77863     19.48664     -2.40185    150.0    150.0      0.0     -2.0    400.0      1.0    325.2    376.5   3.13504  -0.40992  46.21275
      24 2002 12 21  0  1 34 176  4.1255    157.78915   1261.30593    975.35039    -39.65256     20.68508     -2.49414    150.0    150.0      0.0     -2.0    400.0      1.0    325.2    376.5   3.13474  -0.40992  46.17255
      25 2002 12 21  0  1 38 305  4.1289    157.76773   1261.45566    975.41578    -43.22257     19.71668     -2.58584    150.0    150.0      0.0     -2.0    400.0      1.0    325.2    376.5   3.13444  -0.40992  46.13454
      26 2002 12 21  0  1 42 437  4.1316    157.74632   1261.59974    975.48005    -44.99282     21.94115     -2.67318    150.0    150.0      0.0     -2.0    400.0      1.0    325.2    376.5   3.13414  -0.40992  46.09505
      27 2002 12 21  0  1 46 572  4.1352    157.73722   1261.73837    975.54305    -47.11943     22.02778     -2.75643    150.0    150.0      0.0     -2.0    400.0      1.0    325.2    376.5   3.13384  -0.40992  46.05768
      28 2002 12 21  0  1 50 712  4.1400    157.73643   1261.87132    975.60465    -50.30198     23.48133     -2.83702    150.0    150.0      0.0     -2.0    400.0      1.0    325.2    376.5   3.13354  -0.40992  46.01877
      29 2002 12 21  0  1 54 857  4.1446    157.72676   1261.99853    975.66466    -49.85306     25.12554     -2.91578    150.0    150.0      0.0     -2.0    400.0      1.0    325.2    376.5   3.13324  -0.40992  45.98192
      30 2002 12 21  0  1 59   5  4.1477    157.70689   1262.12041    975.72298    -52.99364     24.56316     -2.99238    150.0    150.0      0.0     -2.0    400.0      1.0    325.2    376.5   3.13294  -0.40992  45.94351
      31 2002 12 21  0  2  3 154  4.1495    157.68851   1262.23760    975.77956    -55.64071     25.45879     -3.06469    150.0    150.0      0.0     -2.0    400.0      1.0    325.2    376.5   3.13264  -0.40992  45.90713
      32 2002 12 21  0  2  7 305  4.1510    157.68087   1262.35035    975.83439    -54.83564     26.65989     -3.13239    150.0    150.0      0.0     -2.0    400.0      1.0    324.8    377.5   3.13233  -0.40992  45.86912
      33 2002 12 21  0  2 11 458  4.1529    157.68029   1262.45848    975.88732    -59.76374     25.99709     -3.19607    150.0    150.0      0.0     -2.0    400.0      1.0    324.8    377.5   3.13203  -0.40992  45.83328
      34 2002 12 21  0  2 15 612  4.1537    157.67224   1262.56162    975.93834    -61.58172     28.84563     -3.25577    150.0    150.0      0.0     -2.0    400.0      1.0    324.8    377.5   3.13173  -0.40992  45.79576
      35 2002 12 21  0  2 19 765  4.1536    157.65649   1262.65971    975.98744    -59.66321     29.93996     -3.31323    150.0    150.0      0.0     -2.0    400.0      1.0    324.8    377.5   3.13143  -0.40992  45.76028
      36 2002 12 21  0  2 23 918  4.1528    157.64322   1262.75309    976.03467    -64.76456     28.94961     -3.36963    150.0    150.0      0.0     -2.0    400.0      1.0    324.8    377.5   3.13113  -0.40992  45.72316
      37 2002 12 21  0  2 28  70  4.1525    157.63980   1262.84206    976.08008    -66.72895     30.18709     -3.42420    150.0    150.0      0.0     -2.0    400.0      1.0    324.8    377.5   3.13082  -0.40992  45.68813
      38 2002 12 21  0  2 32 223  4.1527    157.64136   1262.92650    976.12372    -64.88766     31.39382     -3.47768    150.0    150.0      0.0     -2.0    400.0      1.0    324.8    377.5   3.13052  -0.40992  45.65151
      39 2002 12 21  0  2 36 374  4.1512    157.64204   1263.00612    976.16560    -70.16967     30.48880     -3.53294    150.0    150.0      0.0     -2.0    400.0      1.0    324.8    377.5   3.13022  -0.40992  45.61695
      40 2002 12 21  0  2 40 524  4.1503    157.63736   1263.08090    976.20593    -72.49319     33.35696     -3.59054    150.0    150.0      0.0     -2.0    400.0      1.0    324.8    377.5   3.12992  -0.40992  45.58085
      41 2002 12 21  0  2 44 674  4.1497    157.63191   1263.15105    976.24483    -71.23692     34.78474     -3.64926    150.0    150.0      0.0     -2.0    400.0      1.0    324.8    377.5   3.12962  -0.40992  45.54677
      42 2002 12 21  0  2 48 821  4.1465    157.63227   1263.21660    976.28245    -73.16213     34.27908     -3.71050    150.0    150.0      0.0     -2.0    400.0      1.0    324.8    377.5   3.12932  -0.40992  45.51120
      43 2002 12 21  0  2 52 964  4.1433    157.63733   1263.27715    976.31894    -76.22416     34.45196     -3.77469    150.0    150.0      0.0     -2.0    400.0      1.0    324.8    377.5   3.12901  -0.40992  45.47763
      44 2002 12 21  0  2 57 104  4.1400    157.64458   1263.33290    976.35446    -76.16470     36.20356     -3.84160    150.0    150.0      0.0     -2.0    400.0      1.0    324.8    377.5   3.12871  -0.40992  45.44264
      45 2002 12 21  0  3  1 240  4.1365    157.64705   1263.38421    976.38921    -76.11161     36.65332     -3.91094    150.0    150.0      0.0     -2.0    400.0      1.0    324.8    377.5   3.12841  -0.40992  45.40958
      46 2002 12 21  0  3  5 373  4.1329    157.64825   1263.43146    976.42360    -80.08762     38.37067     -3.97967    150.0    150.0      0.0     -2.0    400.0      1.0    324.8    378.1   3.12811  -0.40992  45.37509
      47 2002 12 21  0  3  9 504  4.1304    157.65178   1263.47495    976.45781    -81.39759     43.32863     -4.04232    150.0    150.0      0.0     -2.0    400.0      1.0    324.8    378.1   3.12781  -0.40992  45.34249
      48 2002 12 21  0  3 13 632  4.1280    157.65918   1263.51482    976.49211    -78.58643     46.94140     -4.09464    150.0    150.0      0.0     -2.0    400.0      1.0    324.8    378.1   3.12751  -0.40992  45.30874
      49 2002 12 21  0  3 17 758  4.1259    157.66670   1263.55138    976.52677    -81.02897     48.71752     -4.13462    150.0    150.0      0.0     -2.0    400.0      1.0    324.8    378.1   3.12721  -0.40992  45.27655
      50 2002 12 21  0  3 21 882  4.1242    157.67107   1263.58523    976.56209    -83.73601     48.71290     -4.15882    150.0    150.0      0.0     -2.0    400.0      1.0    324.8    378.1   3.12691  -0.40992  45.24333
      51 2002 12 21  0  3 26   5  4.1227    157.67311   1263.61707    976.59820    -82.98751     51.84438     -4.16303    150.0    150.0      0.0     -2.0    400.0      1.0    324.8    378.1   3.12661  -0.40992  45.21155
      52 2002 12 21  0  3 30 125  4.1209    157.67808   1263.64761    976.63550    -81.85661     55.35474     -4.14429    150.0    150.0      0.0     -2.0    400.0      1.0    324.8    378.1   3.12631  -0.40992  45.17888
      53 2002 12 21  0  3 34 244  4.1183    157.68750   1263.67754    976.67443    -85.51927     56.86989     -4.10061    150.0    150.0      0.0     -2.0    400.0      1.0    324.8    378.1   3.12601  -0.40992  45.14754
      54 2002 12 21  0  3 38 359  4.1149    157.69714   1263.70787    976.71525    -86.72074     62.09936     -4.02851    150.0    150.0      0.0     -2.0    400.0      1.0    324.8    378.1   3.12571  -0.40992  45.11544
      55 2002 12 21  0  3 42 470  4.1110    157.70245   1263.73937    976.75806    -83.93777     66.59983     -3.92525    150.0    150.0      0.0     -2.0    400.0      1.0    324.8    378.1   3.12541  -0.40992  45.08459
      56 2002 12 21  0  3 46 577  4.1074    157.70339   1263.77325    976.80316    -84.39382     68.16191     -3.79054    150.0    150.0      0.0     -2.0    400.0      1.0    324.8    378.1   3.12512  -0.40992  45.05307
      57 2002 12 21  0  3 50 682  4.1050    157.70421   1263.81063    976.85079    -86.92471     67.66379     -3.62446    150.0    150.0      0.0     -2.0    400.0      1.0    324.8    378.1   3.12482  -0.40992  45.02270
      58 2002 12 21  0  3 54 786  4.1037    157.70746   1263.85279    976.90098    -86.41405     70.63194     -3.42904    150.0    150.0      0.0     -2.0    400.0      1.0    324.8    378.1   3.12452  -0.40992  44.99171
      59 2002 12 21  0  3 58 889  4.1034    157.71285   1263.90114    976.95375    -82.56681     75.46485     -3.20983    150.0    150.0      0.0     -2.0    400.0      1.0    324.8    378.1   3.12422  -0.40992  44.96180
      60 2002 12 21  0  4  2 993  4.1038    157.71771   1263.95713    977.00937    -85.95947     77.18785     -2.97259    150.0    150.0      0.0     -2.0    400.0      1.0    324.8    378.1   3.12392  -0.40992  44.93129
      61 2002 12 21  0  4  7  98  4.1047    157.71999   1264.02225    977.06790    -87.02351     76.78082     -2.72137    150.0    150.0      0.0     -2.0    400.0      1.0    324.5    382.8   3.12362  -0.40992  44.90183
      62 2002 12 21  0  4 11 204  4.1062    157.72229   1264.09816    977.12920    -84.78213     84.46096     -2.45916    150.0    150.0      0.0     -2.0    400.0      1.0    324.5    382.8   3.12332  -0.40992  44.87178
      63 2002 12 21  0  4 15 311  4.1069    157.72521   1264.18655    977.19298    -83.17955     88.78145     -2.19132    150.0    150.0      0.0     -2.0    400.0      1.0    324.5    382.8   3.12303  -0.40992  44.84255
      64 2002 12 21  0  4 19 418  4.1071    157.72705   1264.28926    977.25908    -85.03853     89.87607     -1.92234    150.0    150.0      0.0     -2.0    400.0      1.0    324.5    382.8   3.12273  -0.40992  44.81295
      65 2002 12 21  0  4 23 525  4.1067    157.72653   1264.41001    977.32721    -84.36946     88.96134     -1.65482    150.0    150.0      0.0     -2.0    400.0      1.0    324.5    382.8   3.12243  -0.40992  44.78417
      66 2002 12 21  0  4 27 631  4.1060    157.72440   1264.54902    977.39695    -80.35813     93.14880     -1.39140    150.0    150.0      0.0     -2.0    400.0      1.0    324.5    382.8   3.12213  -0.40992  44.75494
      67 2002 12 21  0  4 31 736  4.1054    157.72274   1264.71103    977.46788    -82.18175     98.02186     -1.13579    150.0    150.0      0.0     -2.0    400.0      1.0    324.5    382.8   3.12183  -0.40992  44.72657
      68 2002 12 21  0  4 35 841  4.1052    157.72256   1264.89966    977.53958    -82.32051     99.52989     -0.89162    150.0    150.0      0.0     -2.0    400.0      1.0    324.5    382.8   3.12153  -0.40992  44.69767
      69 2002 12 21  0  4 39 947  4.1057    157.72287   1265.12176    977.61159    -79.79674     98.88735     -0.65787    150.0    150.0      0.0     -2.0    400.0      1.0    324.5    382.8   3.12123  -0.40992  44.66964
      70 2002 12 21  0  4 44  54  4.1071    157.72171   1265.38650    977.68329    -78.54441    104.11771     -0.43139    150.0    150.0      0.0     -2.0    400.0      1.0    324.5    382.8   3.12094  -0.40992  44.64104
      71 2002 12 21  0  4 48 163  4.1093    157.71837   1265.71711    977.75397    -78.84911    109.09799     -0.21008    150.0    150.0      0.0     -2.0    400.0      1.0    324.5    382.8   3.12064  -0.40992  44.61331
      72 2002 12 21  0  4 52 275  4.1120    157.71445   1266.14695    977.82290    -76.94123    110.72624      0.00696    150.0    150.0      0.0     -2.0    400.0      1.0    324.5    382.8   3.12034  -0.40992  44.58495
      73 2002 12 21  0  4 56 390  4.1149    157.71208   1267.10643    977.88942    -75.22006    110.26465      0.22122    150.0    150.0      0.0     -2.0    400.0      1.0    324.5    382.8   3.12004  -0.40992  44.55748
      74 2002 12 21  0  5  0   0  3.6095    157.71180   1268.11709    977.94391    -75.30078    110.47779      0.44597    150.0    150.0      0.0     -2.0    400.0      1.0    324.5    382.8   3.11978  -0.40992  44.53285
